File: FT-IR/Gruppe2A/aluminium_spacer.dat
#Datum: 21.01.2016 16:19:44
#Quelle: aluminium_spacer

#Daten:
cm-1;%T
450;80,7607321251265
462;83,6031302670081
474;86,9443673620688
486;89,2809120295119
498;90,4302973870594
510;90,7842930660652
522;89,7969653248236
534;88,5532777007795
546;86,4984121864277
558;84,6185411395478
570;83,0783997383521
582;82,2038381287002
594;82,1368946211172
606;82,9732086133395
618;84,5522199119252
630;86,4282277261491
642;88,3170006971798
654;89,709547104216
666;90,5032213115105
678;90,2999110394354
690;89,3713793153198
702;87,7406718863434
714;85,7854632105704
726;83,8572070288426
738;82,4115597855183
750;81,6723799694734
762;81,7577761569978
774;82,6579825131838
786;84,1027122614944
798;85,8473605177292
810;87,4732109795835
822;88,7604642273451
834;89,4473922704446
846;89,3814014308772
858;88,6111489245632
870;87,2523937494453
882;85,6193097969748
894;84,0052257734658
906;82,7373383570512
918;82,0713483979652
930;82,1331982624386
942;82,8265500548908
954;83,9438556251776
966;85,327955341973
978;86,607681451704
990;87,572701219994
1002;88,0280876641324
1014;87,7591332099908
1026;87,2193493939716
1038;86,3337709516922
1050;85,120967395088
1062;83,8959971345395
1074;82,819929431534
1086;82,4403570160336
1098;82,4116497426443
1110;82,8928460197954
1122;83,7650664010343
1134;84,8189906078022
1146;85,7493967681954
1158;86,6873452495608
1170;87,1296934869034
1182;86,9710580234606
1194;86,8315848168805
1206;86,1291638107653
1218;85,1989503741556
1230;84,2599541817526
1242;83,446175825937
1254;82,9544387714192
1266;82,8288874338624
1278;83,1338714500418
1290;83,6828559167891
1302;84,3850429234313
1314;85,1308197134594
1326;85,7495016720964
1338;86,1960340665301
1350;86,2909311748655
1362;86,1735956546756
1374;85,6970879635924
1386;84,6924234255444
1398;84,5520652434761
1410;83,9378539186432
1422;83,5230001703245
1434;83,3081895808756
1446;83,3280377245139
1458;83,5229616973089
1470;83,8619858490105
1482;84,4969267303573
1494;85,0385467350419
1506;85,47576326574
1518;85,6997098478691
1530;85,6858469194956
1542;85,3168772290959
1554;85,2245122783694
1566;84,7193949709458
1578;83,9248401905373
1590;83,7999198348277
1602;83,7246750291085
1614;83,5770776918468
1626;83,6044425616506
1638;83,8018596576294
1650;84,1735290057221
1662;84,494160241901
1674;84,8738845700963
1686;85,1384582471557
1698;85,3843673108621
1710;85,421041910652
1722;85,2693593967611
1734;85,0670274240873
1746;84,7965110387481
1758;84,4961916979517
1770;84,1521489154445
1782;83,875682890538
1794;83,7141055227401
1806;83,6987202727031
1818;83,851916643044
1830;84,1351037118549
1842;84,542242912404
1854;84,9042246871914
1866;85,2591494528932
1878;85,4756746074779
1890;85,5400523760308
1902;85,414853535072
1914;85,1318461012118
1926;84,7510144980118
1938;84,3384096331628
1950;83,9671732390034
1962;83,7286719935742
1974;83,633895597017
1986;83,7140760096245
1998;83,9373459055254
2010;84,2794713142541
2022;84,6721893064651
2034;85,0693107861532
2046;85,3512272136962
2058;85,4788223176323
2070;85,4423593758369
2082;85,2274183832976
2094;84,8902349420416
2106;84,484726158587
2118;84,1142902357876
2130;83,8126463680268
2142;83,6741979471036
2154;83,6952768488203
2166;83,8716219598025
2178;84,1669218818798
2190;84,5439077741552
2202;84,9025961004764
2214;85,1944917075964
2226;85,3624791239394
2238;85,3812225129682
2250;85,2224236839046
2262;84,9466064136094
2274;84,5960563925218
2286;84,2418083821036
2298;83,8897246882695
2310;83,6327207584394
2322;83,4743369518006
2334;83,6259118205538
2346;83,7925494545595
2358;84,1396434734646
2370;84,4851338224359
2382;85,0075477378128
2394;85,1818743198372
2406;85,2280017731468
2418;85,1404827451664
2430;84,929255465002
2442;84,6514050393568
2454;84,3610903021328
2466;84,1121294760622
2478;83,9721411425676
2490;83,9462087999189
2502;84,0267380803756
2514;84,1865768797914
2526;84,4081038604337
2538;84,6486991347961
2550;84,8613529089118
2562;85,017411036607
2574;85,0659042084566
2586;85,0209364517732
2598;84,879500954415
2610;84,6771425532425
2622;84,4460034630576
2634;84,2440488712178
2646;84,1129347637465
2658;84,0558458470002
2670;84,0719624715949
2682;84,1556401966659
2694;84,293243342252
2706;84,4602074391225
2718;84,6180782707956
2730;84,7467306821523
2742;84,8104523417806
2754;84,8087708749186
2766;84,7383643797048
2778;84,6320173280126
2790;84,4642786976226
2802;84,3467589004128
2814;84,2352287994993
2826;84,1276664434888
2838;83,9231155851512
2850;83,2131476385584
2862;83,9178440111584
2874;84,0139170277124
2886;84,1821610393904
2898;84,1404888230469
2910;83,8476661945463
2922;83,4903421115182
2934;84,1905375134443
2946;84,2781719945318
2958;84,2890738798926
2970;84,3654985132803
2982;84,3137318766111
2994;84,2322929925699
3006;84,2150407962485
3018;84,1294493437769
3030;84,1656568903198
3042;84,1023908485466
3054;84,2366632947487
3066;84,2901679536334
3078;84,2970324818496
3090;84,444644896121
3102;84,5444218383604
3114;84,4994933251287
3126;84,5627797542335
3138;84,4444956197028
3150;84,3801338882964
3162;84,347343955691
3174;84,2593683975706
3186;84,1927420987151
3198;84,1332872859279
3210;84,1068601759014
3222;84,1208459543986
3234;84,0494503849762
3246;84,1781097895553
3258;84,3201383419361
3270;84,2868597845026
3282;84,4629413528536
3294;84,3595634456398
3306;84,1968499605274
3318;84,3499832325747
3330;84,2486530076773
3342;84,0867864190314
3354;84,0154572271655
3366;83,8565969734136
3378;83,85429731348
3390;83,7639875256089
3402;83,7207820312559
3414;83,9012056881433
3426;83,9826147609914
3438;83,9569281265246
3450;84,1295972922926
3462;84,1369231273961
3474;84,158522920835
3486;84,1239722276328
3498;84,0740482540886
3510;84,0778984699443
3522;83,9488309498659
3534;83,8960795256992
3546;83,7656139863971
3558;83,8515836172999
3570;83,8801845540471
3582;83,9662475956658
3594;84,1384960562862
3606;84,2389132054451
3618;84,3440805366239
3630;84,50403652028
3642;84,5259454914055
3654;84,4937254091051
3666;84,4248635717417
3678;84,2854679136656
3690;84,1287251256924
3702;84,0836005223582
3714;83,9948177207804
3726;83,9795737675696
3738;83,9324780350843
3750;84,0826779385886
3762;84,1730390137297
3774;84,3087196303984
3786;84,4054603044047
3798;84,4540669579476
3810;84,5173728175878
3822;84,5076282313047
3834;84,4232154284396
3846;84,3435336921631
3858;84,2276227489028
3870;84,1045566196024
3882;83,9928544482164
3894;83,9774253468533
3906;83,9875037362784
3918;84,0508080262996
3930;84,1404349655535
3942;84,240694701014
3954;84,3158844690988
3966;84,3981039040786
3978;84,4175333554895
3990;84,4613792398697
4000;84,4135751532995