File: FT-IR/Gruppe2A/polyethylen.dat
#Datum: 21.01.2016 16:19:44
#Quelle: polyethylen

#Daten:
cm-1;%T
630;90,0484390258789
645;92,7074203491211
660;92,3275680541992
675;91,9477081298828
690;91,5678634643555
705;86,2499084472656
720;48,6443672180176
735;78,6528244018555
750;96,5059585571289
765;96,5059585571289
780;98,0253753662109
795;97,6455230712891
810;98,7850799560547
825;96,8858184814453
840;97,6455230712891
855;98,4052276611328
870;97,2656631469726
885;96,8858184814453
900;96,8858184814453
915;96,5059585571289
930;97,2656631469726
945;98,4052276611328
960;97,6455230712891
975;98,0253753662109
990;97,2656631469726
1005;98,4052276611328
1020;98,4052276611328
1035;98,0253753662109
1050;97,2656631469726
1065;97,6455230712891
1080;97,6455230712891
1095;98,0253753662109
1110;97,6455230712891
1125;96,8858184814453
1140;96,5059585571289
1155;96,5059585571289
1170;96,5059585571289
1185;96,126106262207
1200;95,7462463378906
1215;95,3663940429688
1230;95,3663940429688
1245;98,0253753662109
1260;99,544792175293
1275;99,1649322509766
1290;98,7850799560547
1305;98,4052276611328
1320;98,7850799560547
1335;99,544792175293
1350;98,4052276611328
1365;97,2656631469726
1380;98,7850799560547
1395;99,9246444702148
1410;99,9246444702148
1425;97,6455230712891
1440;92,3275680541992
1455;79,0326843261719
1470;51,6831970214844
1485;98,4052276611328
1500;101,823913574219
1515;102,963478088379
1530;103,343330383301
1545;103,343330383301
1560;103,723182678223
1575;102,963478088379
1590;100,684349060059
1605;99,9246444702148
1620;102,583618164062
1635;102,963478088379
1650;102,963478088379
1665;102,963478088379
1680;102,963478088379
1695;103,343330383301
1710;102,963478088379
1725;103,343330383301
1740;104,103034973145
1755;104,482887268066
1770;103,723182678223
1785;103,343330383301
1800;103,343330383301
1815;103,343330383301
1830;103,723182678223
1845;103,723182678223
1860;103,723182678223
1875;104,103034973145
1890;103,723182678223
1905;103,723182678223
1920;104,103034973145
1935;104,103034973145
1950;104,482887268066
1965;104,482887268066
1980;104,482887268066
1995;104,482887268066
2010;104,103034973145
2025;104,103034973145
2040;104,482887268066
2055;104,482887268066
2070;104,482887268066
2085;104,482887268066
2100;104,482887268066
2115;104,482887268066
2130;104,482887268066
2145;104,482887268066
2160;104,103034973145
2175;104,103034973145
2190;104,103034973145
2205;104,103034973145
2220;104,103034973145
2235;104,103034973145
2250;104,103034973145
2265;103,723182678223
2280;103,723182678223
2295;103,723182678223
2310;103,723182678223
2325;103,343330383301
2340;103,343330383301
2355;103,723182678223
2370;104,103034973145
2385;104,103034973145
2400;104,103034973145
2415;104,103034973145
2430;103,723182678223
2445;103,723182678223
2460;103,723182678223
2475;103,723182678223
2490;103,343330383301
2505;103,343330383301
2520;102,963478088379
2535;102,963478088379
2550;102,203773498535
2565;101,823913574219
2580;101,823913574219
2595;101,06420135498
2610;100,684349060059
2625;99,544792175293
2640;99,1649322509766
2655;99,1649322509766
2670;99,1649322509766
2685;99,544792175293
2700;99,544792175293
2715;98,7850799560547
2730;98,4052276611328
2745;98,0253753662109
2760;97,2656631469726
2775;95,7462463378906
2790;93,4671249389648
2805;90,0484390258789
2820;84,3506393432617
2835;64,218376159668
2850;16,3567867279053
2865;71,0557479858398
2880;61,9392547607422
2895;40,2875785827637
2910;15,9769325256348
2925;23,1941566467285
2940;76,7535552978516
2955;96,126106262207
2970;101,06420135498
2985;104,103034973145
3000;104,103034973145
3015;104,482887268066
3030;104,103034973145
3045;104,103034973145
3060;103,723182678223
3075;103,723182678223
3090;103,723182678223
3105;104,103034973145
3120;104,103034973145
3135;104,103034973145
3150;104,103034973145
3165;103,723182678223
3180;103,343330383301
3195;102,963478088379
3210;102,963478088379
3225;102,963478088379
3240;103,343330383301
3255;103,343330383301
3270;103,343330383301
3285;103,343330383301
3300;103,343330383301
3315;102,963478088379
3330;102,963478088379
3345;102,963478088379
3360;102,583618164062
3375;102,583618164062
3390;102,583618164062
3405;102,963478088379
3420;102,583618164062
3435;102,583618164062
3450;102,583618164062
3465;102,583618164062
3480;102,583618164062
3495;102,583618164062
3510;102,583618164062
3525;102,583618164062
3540;102,963478088379
3555;102,963478088379
3570;102,963478088379
3585;102,963478088379
3600;102,963478088379
3615;102,583618164062
3630;102,963478088379
3645;102,203773498535
3660;102,963478088379
3675;103,343330383301
3690;102,963478088379
3705;102,963478088379
3720;102,583618164062
3735;102,583618164062
3750;102,583618164062
3765;102,203773498535
3780;102,583618164062
3795;102,583618164062
3810;102,583618164062
3825;102,583618164062
3840;102,583618164062
3855;102,583618164062
3870;102,583618164062
3885;102,583618164062
3900;102,963478088379
3915;102,963478088379
3930;102,963478088379
3945;102,963478088379
3960;103,343330383301
3975;103,343330383301
3990;103,343330383301
4000;103,723182678223