File: FT-IR/Gruppe2A/tmp3.dat
#Datum: 21.01.2016 16:19:44
#Quelle: aluminium_spacer

#Daten:
#cm-1 %T
450 80.7607
462 83.6031
474 86.9444
486 89.2809
498 90.4303
510 90.7843
522 89.797
534 88.5533
546 86.4984
558 84.6185
570 83.0784
582 82.2038
594 82.1369
606 82.9732
618 84.5522
630 86.4282
642 88.317
654 89.7095
666 90.5032
678 90.2999
690 89.3714
702 87.7407
714 85.7855
726 83.8572
738 82.4116
750 81.6724
762 81.7578
774 82.658
786 84.1027
798 85.8474
810 87.4732
822 88.7605
834 89.4474
846 89.3814
858 88.6111
870 87.2524
882 85.6193
894 84.0052
906 82.7373
918 82.0713
930 82.1332
942 82.8266
954 83.9439
966 85.328
978 86.6077
990 87.5727
1002 88.0281
1014 87.7591
1026 87.2193
1038 86.3338
1050 85.121
1062 83.896
1074 82.8199
1086 82.4404
1098 82.4116
1110 82.8928
1122 83.7651
1134 84.819
1146 85.7494
1158 86.6873
1170 87.1297
1182 86.9711
1194 86.8316
1206 86.1292
1218 85.199
1230 84.26
1242 83.4462
1254 82.9544
1266 82.8289
1278 83.1339
1290 83.6829
1302 84.385
1314 85.1308
1326 85.7495
1338 86.196
1350 86.2909
1362 86.1736
1374 85.6971
1386 84.6924
1398 84.5521
1410 83.9379
1422 83.523
1434 83.3082
1446 83.328
1458 83.523
1470 83.862
1482 84.4969
1494 85.0385
1506 85.4758
1518 85.6997
1530 85.6858
1542 85.3169
1554 85.2245
1566 84.7194
1578 83.9248
1590 83.7999
1602 83.7247
1614 83.5771
1626 83.6044
1638 83.8019
1650 84.1735
1662 84.4942
1674 84.8739
1686 85.1385
1698 85.3844
1710 85.421
1722 85.2694
1734 85.067
1746 84.7965
1758 84.4962
1770 84.1521
1782 83.8757
1794 83.7141
1806 83.6987
1818 83.8519
1830 84.1351
1842 84.5422
1854 84.9042
1866 85.2591
1878 85.4757
1890 85.5401
1902 85.4149
1914 85.1318
1926 84.751
1938 84.3384
1950 83.9672
1962 83.7287
1974 83.6339
1986 83.7141
1998 83.9373
2010 84.2795
2022 84.6722
2034 85.0693
2046 85.3512
2058 85.4788
2070 85.4424
2082 85.2274
2094 84.8902
2106 84.4847
2118 84.1143
2130 83.8126
2142 83.6742
2154 83.6953
2166 83.8716
2178 84.1669
2190 84.5439
2202 84.9026
2214 85.1945
2226 85.3625
2238 85.3812
2250 85.2224
2262 84.9466
2274 84.5961
2286 84.2418
2298 83.8897
2310 83.6327
2322 83.4743
2334 83.6259
2346 83.7925
2358 84.1396
2370 84.4851
2382 85.0075
2394 85.1819
2406 85.228
2418 85.1405
2430 84.9293
2442 84.6514
2454 84.3611
2466 84.1121
2478 83.9721
2490 83.9462
2502 84.0267
2514 84.1866
2526 84.4081
2538 84.6487
2550 84.8614
2562 85.0174
2574 85.0659
2586 85.0209
2598 84.8795
2610 84.6771
2622 84.446
2634 84.244
2646 84.1129
2658 84.0558
2670 84.072
2682 84.1556
2694 84.2932
2706 84.4602
2718 84.6181
2730 84.7467
2742 84.8105
2754 84.8088
2766 84.7384
2778 84.632
2790 84.4643
2802 84.3468
2814 84.2352
2826 84.1277
2838 83.9231
2850 83.2131
2862 83.9178
2874 84.0139
2886 84.1822
2898 84.1405
2910 83.8477
2922 83.4903
2934 84.1905
2946 84.2782
2958 84.2891
2970 84.3655
2982 84.3137
2994 84.2323
3006 84.215
3018 84.1294
3030 84.1657
3042 84.1024
3054 84.2367
3066 84.2902
3078 84.297
3090 84.4446
3102 84.5444
3114 84.4995
3126 84.5628
3138 84.4445
3150 84.3801
3162 84.3473
3174 84.2594
3186 84.1927
3198 84.1333
3210 84.1069
3222 84.1208
3234 84.0495
3246 84.1781
3258 84.3201
3270 84.2869
3282 84.4629
3294 84.3596
3306 84.1968
3318 84.35
3330 84.2487
3342 84.0868
3354 84.0155
3366 83.8566
3378 83.8543
3390 83.764
3402 83.7208
3414 83.9012
3426 83.9826
3438 83.9569
3450 84.1296
3462 84.1369
3474 84.1585
3486 84.124
3498 84.074
3510 84.0779
3522 83.9488
3534 83.8961
3546 83.7656
3558 83.8516
3570 83.8802
3582 83.9662
3594 84.1385
3606 84.2389
3618 84.3441
3630 84.504
3642 84.5259
3654 84.4937
3666 84.4249
3678 84.2855
3690 84.1287
3702 84.0836
3714 83.9948
3726 83.9796
3738 83.9325
3750 84.0827
3762 84.173
3774 84.3087
3786 84.4055
3798 84.4541
3810 84.5174
3822 84.5076
3834 84.4232
3846 84.3435
3858 84.2276
3870 84.1046
3882 83.9929
3894 83.9774
3906 83.9875
3918 84.0508
3930 84.1404
3942 84.2407
3954 84.3159
3966 84.3981
3978 84.4175
3990 84.4614
4000 84.4136